File: dados_concreto.csv
Cement,Blast Furnace Slag,Fly Ash,Water,Superplasticizer,Coarse Aggregate,Fine Aggregate,Age,Concrete compressive strength,Strength Category
540.0 ,0.0 ,0.0 ,162.0 ,2.5 ,1040.0 ,676.0 ,28 ,79.99 ,Alto
190.0 ,190.0 ,0.0 ,228.0 ,0.0 ,932.0 ,670.0 ,90 ,42.33 ,Baixa
380.0 ,95.0 ,0.0 ,228.0 ,0.0 ,932.0 ,594.0 ,270 ,41.15 ,Baixa
237.5 ,237.5 ,0.0 ,228.0 ,0.0 ,932.0 ,594.0 ,180 ,36.25 ,Baixa
237.5 ,237.5 ,0.0 ,228.0 ,0.0 ,932.0 ,594.0 ,90 ,33.12 ,Baixa
342.0 ,38.0 ,0.0 ,228.0 ,0.0 ,932.0 ,670.0 ,270 ,55.06 ,Baixa
388.6 ,97.1 ,0.0 ,157.9 ,12.1 ,852.1 ,925.7 ,3 ,28.10 ,Baixa
362.6 ,189.0 ,0.0 ,164.9 ,11.6 ,944.7 ,755.8 ,3 ,35.30 ,Baixa
318.8 ,212.5 ,0.0 ,155.7 ,14.3 ,852.1 ,880.4 ,7 ,33.40 ,Baixa
313.3 ,262.2 ,0.0 ,175.5 ,8.6 ,1046.9 ,611.8 ,28 ,59.80 ,Baixa
323.7 ,282.8 ,0.0 ,183.8 ,10.3 ,942.7 ,659.9 ,28 ,74.70 ,Alto
375.0 ,93.8 ,0.0 ,126.6 ,23.4 ,852.1 ,992.6 ,56 ,60.20 ,Alto
286.3 ,200.9 ,0.0 ,144.7 ,11.2 ,1004.6 ,803.7 ,56 ,72.99 ,Alto
425.0 ,106.3 ,0.0 ,153.5 ,16.5 ,852.1 ,887.1 ,91 ,65.20 ,Alto
362.6 ,189.0 ,0.0 ,164.9 ,11.6 ,944.7 ,755.8 ,91 ,79.30 ,Alto
194.7 ,0.0 ,100.5 ,165.6 ,7.5 ,1006.4 ,905.9 ,14 ,24.99 ,Baixa
212.1 ,0.0 ,121.6 ,180.3 ,5.7 ,1057.6 ,779.3 ,100 ,39.61 ,Baixa
166.1 ,0.0 ,163.3 ,176.5 ,4.5 ,1058.6 ,780.1 ,28 ,21.54 ,Baixa
213.8 ,98.1 ,24.5 ,181.7 ,6.7 ,1066.0 ,785.5 ,3 ,13.18 ,Baixa
238.1 ,0.0 ,94.1 ,186.7 ,7.0 ,949.9 ,847.0 ,56 ,39.59 ,Baixa
212.6 ,0.0 ,100.4 ,159.4 ,10.4 ,1003.8 ,903.8 ,14 ,25.37 ,Baixa
231.8 ,0.0 ,121.6 ,174.0 ,6.7 ,1056.4 ,778.5 ,100 ,45.84 ,Baixa
181.4 ,0.0 ,167.0 ,169.6 ,7.6 ,1055.6 ,777.8 ,28 ,27.77 ,Baixa
290.4 ,0.0 ,96.2 ,168.1 ,9.4 ,961.2 ,865.0 ,3 ,22.50 ,Baixa
295.7 ,0.0 ,95.6 ,171.5 ,8.9 ,955.1 ,859.2 ,56 ,48.72 ,Baixa
252.3 ,0.0 ,98.8 ,146.3 ,14.2 ,987.8 ,889.0 ,14 ,42.29 ,Baixa
275.1 ,0.0 ,121.4 ,159.5 ,9.9 ,1053.6 ,777.5 ,100 ,58.61 ,Baixa
213.5 ,0.0 ,174.2 ,154.6 ,11.7 ,1052.3 ,775.5 ,28 ,45.94 ,Baixa
214.9 ,53.8 ,121.9 ,155.6 ,9.6 ,1014.3 ,780.6 ,3 ,18.02 ,Baixa
376.0 ,0.0 ,0.0 ,214.6 ,0.0 ,1003.5 ,762.4 ,56 ,36.30 ,Baixa
450.1 ,50.0 ,0.0 ,200.0 ,3.0 ,1124.4 ,613.2 ,28 ,39.38 ,Baixa
356.0 ,119.0 ,0.0 ,160.0 ,9.0 ,1061.0 ,657.0 ,28 ,59.00 ,Baixa
213.5 ,0.0 ,174.2 ,159.2 ,11.7 ,1043.6 ,771.9 ,3 ,15.61 ,Baixa
213.5 ,0.0 ,174.2 ,159.2 ,11.7 ,1043.6 ,771.9 ,14 ,29.59 ,Baixa
213.5 ,0.0 ,174.2 ,159.2 ,11.7 ,1043.6 ,771.9 ,28 ,44.64 ,Baixa
213.5 ,0.0 ,174.2 ,159.2 ,11.7 ,1043.6 ,771.9 ,56 ,51.26 ,Baixa
213.5 ,0.0 ,174.2 ,159.2 ,11.7 ,1043.6 ,771.9 ,100 ,52.96 ,Baixa
446.0 ,24.0 ,79.0 ,162.0 ,11.6 ,967.0 ,712.0 ,56 ,61.07 ,Alto
387.0 ,20.0 ,94.0 ,157.0 ,14.3 ,938.0 ,845.0 ,56 ,56.34 ,Baixa
424.0 ,22.0 ,132.0 ,178.0 ,8.5 ,822.0 ,750.0 ,28 ,62.05 ,Alto
284.0 ,15.0 ,141.0 ,179.0 ,5.5 ,842.0 ,801.0 ,3 ,13.40 ,Baixa
289.0 ,0.0 ,0.0 ,192.0 ,0.0 ,913.2 ,895.3 ,3 ,11.65 ,Baixa
333.0 ,0.0 ,0.0 ,192.0 ,0.0 ,931.2 ,842.6 ,28 ,31.97 ,Baixa
239.6 ,359.4 ,0.0 ,185.7 ,0.0 ,941.6 ,664.3 ,28 ,39.44 ,Baixa
220.8 ,147.2 ,0.0 ,185.7 ,0.0 ,1055.0 ,744.3 ,7 ,13.09 ,Baixa
290.2 ,193.5 ,0.0 ,185.7 ,0.0 ,998.2 ,704.3 ,28 ,33.04 ,Baixa
339.0 ,0.0 ,0.0 ,197.0 ,0.0 ,968.0 ,781.0 ,3 ,13.22 ,Baixa
277.0 ,0.0 ,0.0 ,191.0 ,0.0 ,968.0 ,856.0 ,14 ,21.26 ,Baixa
307.0 ,0.0 ,0.0 ,193.0 ,0.0 ,968.0 ,812.0 ,28 ,27.53 ,Baixa
375.0 ,0.0 ,0.0 ,186.0 ,0.0 ,1038.0 ,758.0 ,7 ,26.06 ,Baixa
122.6 ,183.9 ,0.0 ,203.5 ,0.0 ,958.2 ,800.1 ,90 ,33.19 ,Baixa
133.0 ,200.0 ,0.0 ,192.0 ,0.0 ,927.4 ,839.2 ,28 ,27.87 ,Baixa
166.8 ,250.2 ,0.0 ,203.5 ,0.0 ,975.6 ,692.6 ,7 ,15.75 ,Baixa
157.0 ,236.0 ,0.0 ,192.0 ,0.0 ,935.4 ,781.2 ,7 ,16.89 ,Baixa
200.0 ,133.0 ,0.0 ,192.0 ,0.0 ,965.4 ,806.2 ,7 ,17.17 ,Baixa
141.3 ,212.0 ,0.0 ,203.5 ,0.0 ,971.8 ,748.5 ,90 ,39.66 ,Baixa
331.0 ,0.0 ,0.0 ,192.0 ,0.0 ,1025.0 ,821.0 ,28 ,31.74 ,Baixa
480.0 ,0.0 ,0.0 ,192.0 ,0.0 ,936.0 ,721.0 ,28 ,43.89 ,Baixa
540.0 ,0.0 ,0.0 ,173.0 ,0.0 ,1125.0 ,613.0 ,90 ,69.66 ,Alto
385.0 ,0.0 ,0.0 ,186.0 ,0.0 ,966.0 ,763.0 ,28 ,31.35 ,Baixa
238.0 ,0.0 ,0.0 ,185.0 ,0.0 ,1118.0 ,789.0 ,28 ,17.54 ,Baixa
302.0 ,0.0 ,0.0 ,203.0 ,0.0 ,974.0 ,817.0 ,14 ,18.13 ,Baixa
382.0 ,0.0 ,0.0 ,185.0 ,0.0 ,1047.0 ,739.0 ,7 ,24.00 ,Baixa
525.0 ,0.0 ,0.0 ,189.0 ,0.0 ,1125.0 ,613.0 ,90 ,58.78 ,Baixa
147.0 ,115.0 ,89.0 ,202.0 ,9.0 ,860.0 ,829.0 ,28 ,19.99 ,Baixa
321.0 ,164.0 ,0.0 ,190.0 ,5.0 ,870.0 ,774.0 ,28 ,57.21 ,Baixa
322.0 ,149.0 ,0.0 ,186.0 ,8.0 ,951.0 ,709.0 ,28 ,52.42 ,Baixa
159.0 ,187.0 ,0.0 ,176.0 ,11.0 ,990.0 ,789.0 ,28 ,32.76 ,Baixa
300.0 ,0.0 ,120.0 ,212.0 ,10.0 ,878.0 ,728.0 ,28 ,23.84 ,Baixa
284.0 ,120.0 ,0.0 ,168.0 ,7.0 ,970.0 ,794.0 ,28 ,40.93 ,Baixa
144.0 ,136.0 ,106.0 ,178.0 ,7.0 ,941.0 ,774.0 ,28 ,26.14 ,Baixa
162.0 ,207.0 ,172.0 ,216.0 ,10.0 ,822.0 ,638.0 ,28 ,39.84 ,Baixa
236.9 ,91.7 ,71.5 ,246.9 ,6.0 ,852.9 ,695.4 ,28 ,28.63 ,Baixa
148.1 ,0.0 ,136.6 ,158.1 ,16.1 ,1001.8 ,830.1 ,28 ,17.96 ,Baixa
144.8 ,0.0 ,133.6 ,180.8 ,11.1 ,979.5 ,811.5 ,28 ,13.20 ,Baixa
277.0 ,116.8 ,91.0 ,190.6 ,7.0 ,946.5 ,665.6 ,28 ,43.58 ,Baixa
153.6 ,144.2 ,112.3 ,220.1 ,10.1 ,923.2 ,657.9 ,28 ,16.50 ,Baixa
297.8 ,137.2 ,106.9 ,201.3 ,6.0 ,878.4 ,655.3 ,28 ,53.52 ,Baixa
132.0 ,206.5 ,160.9 ,178.9 ,5.5 ,866.9 ,735.6 ,28 ,33.31 ,Baixa
148.5 ,139.4 ,108.6 ,192.7 ,6.1 ,892.4 ,780.0 ,28 ,23.70 ,Baixa
218.5 ,331.0 ,0.0 ,537.6 ,0.0 ,2250.3 ,2063.8 ,99.0 ,41.9 ,Baixa
363.0 ,251.3 ,0.0 ,422.4 ,0.0 ,1675.2 ,1533.1 ,432.0 ,39.8 ,Baixa
356.3 ,261.3 ,0.0 ,250.8 ,0.0 ,1491.2 ,950.4 ,67.2 ,30.1 ,Baixa
722.0 ,180.5 ,0.0 ,319.2 ,0.0 ,2050.4 ,1485.0 ,14.7 ,32.8 ,Baixa
837.0 ,0.0 ,0.0 ,364.8 ,0.0 ,1844.9 ,2296.6 ,7.8 ,10.9 ,Baixa
807.5 ,178.2 ,0.0 ,344.1 ,21.4 ,1363.4 ,1719.3 ,5.7 ,41.6 ,Baixa
725.2 ,396.9 ,0.0 ,313.3 ,24.4 ,2645.2 ,1662.8 ,8.1 ,31.8 ,Baixa
427.5 ,213.6 ,0.0 ,236.9 ,16.9 ,2385.9 ,2499.4 ,18.9 ,34.9 ,Baixa
616.4 ,472.5 ,0.0 ,214.4 ,17.4 ,2172.8 ,1360.4 ,9.1 ,22.9 ,Baixa
797.0 ,255.0 ,0.0 ,218.0 ,30.0 ,1192.9 ,1496.7 ,67.2 ,61.0 ,Alto
563.9 ,445.7 ,0.0 ,403.7 ,10.3 ,2198.5 ,1713.0 ,84.0 ,64.9 ,Alto
550.3 ,622.2 ,0.0 ,404.4 ,17.5 ,2168.2 ,1583.8 ,123.2 ,80.2 ,Alto
1012.5 ,159.5 ,0.0 ,316.5 ,30.4 ,1959.8 ,1290.4 ,254.8 ,68.8 ,Alto
870.2 ,321.3 ,0.0 ,296.8 ,30.2 ,2645.2 ,1965.1 ,254.8 ,71.4 ,Alto
631.3 ,0.0 ,245.9 ,474.9 ,10.5 ,2651.7 ,1022.6 ,95.2 ,24.9 ,Baixa
381.7 ,0.0 ,158.1 ,414.7 ,15.9 ,2115.2 ,1091.0 ,16.8 ,20.9 ,Baixa
475.9 ,0.0 ,212.8 ,259.0 ,16.8 ,2829.1 ,2167.0 ,190.0 ,36.4 ,Baixa
235.1 ,254.9 ,56.4 ,472.4 ,14.4 ,2984.2 ,1413.7 ,39.2 ,41.1 ,Baixa
333.3 ,0.0 ,216.5 ,261.3 ,18.2 ,1044.9 ,1270.5 ,3.6 ,19.9 ,Baixa
488.8 ,0.0 ,170.6 ,191.2 ,18.3 ,1108.6 ,1265.0 ,112.0 ,46.8 ,Baixa
463.5 ,0.0 ,206.8 ,417.5 ,17.5 ,1584.6 ,2024.0 ,23.8 ,29.4 ,Baixa
276.5 ,0.0 ,295.7 ,376.9 ,15.2 ,2879.5 ,1212.4 ,240.0 ,39.8 ,Baixa
320.9 ,80.2 ,161.5 ,190.0 ,26.0 ,2485.8 ,1671.9 ,72.8 ,31.1 ,Baixa
621.0 ,0.0 ,229.5 ,257.3 ,21.3 ,2674.4 ,1632.5 ,6.3 ,25.2 ,Baixa
647.7 ,0.0 ,167.9 ,284.6 ,23.0 ,2074.3 ,1155.7 ,84.0 ,37.8 ,Baixa
440.1 ,0.0 ,267.0 ,303.0 ,25.7 ,2634.0 ,933.0 ,25.2 ,38.8 ,Baixa
256.5 ,0.0 ,436.9 ,325.1 ,14.2 ,2528.4 ,1242.2 ,230.0 ,50.1 ,Baixa
480.1 ,109.3 ,148.5 ,267.4 ,26.2 ,1936.3 ,2219.5 ,64.4 ,61.1 ,Alto
902.4 ,0.0 ,0.0 ,493.6 ,0.0 ,2408.4 ,2058.4 ,5.7 ,14.7 ,Baixa
1456.0 ,0.0 ,0.0 ,245.0 ,11.4 ,1914.0 ,1288.0 ,36.4 ,56.1 ,Baixa
400.0 ,486.0 ,133.0 ,365.7 ,18.0 ,1290.0 ,2160.0 ,61.6 ,61.1 ,Alto
260.7 ,233.4 ,447.7 ,361.9 ,10.7 ,2618.7 ,970.6 ,8.4 ,15.8 ,Baixa
434.5 ,149.4 ,383.8 ,327.4 ,15.6 ,2618.7 ,1717.2 ,35.0 ,32.5 ,Baixa
347.6 ,186.7 ,367.8 ,189.6 ,18.5 ,2820.2 ,1418.5 ,30.8 ,34.0 ,Baixa
365.0 ,261.4 ,367.8 ,413.6 ,26.3 ,2618.7 ,1717.2 ,145.6 ,44.1 ,Baixa
347.6 ,158.7 ,239.9 ,293.0 ,27.2 ,1410.1 ,1493.2 ,170.0 ,56.0 ,Baixa
713.6 ,38.4 ,205.4 ,226.8 ,20.9 ,1353.8 ,1922.4 ,15.4 ,57.2 ,Baixa
1083.6 ,54.0 ,225.6 ,314.0 ,35.8 ,2438.8 ,1014.0 ,16.8 ,40.5 ,Baixa
687.4 ,36.4 ,221.4 ,381.9 ,6.7 ,2055.0 ,1398.0 ,3.3 ,32.5 ,Baixa
282.8 ,23.1 ,338.4 ,432.6 ,4.6 ,1036.2 ,881.1 ,9.1 ,13.6 ,Baixa
1005.2 ,47.5 ,380.7 ,354.2 ,18.5 ,1413.0 ,2162.7 ,112.0 ,60.1 ,Alto
510.0 ,0.0 ,0.0 ,345.6 ,0.0 ,1156.7 ,1795.5 ,9.8 ,9.2 ,Baixa
406.4 ,812.6 ,0.0 ,464.3 ,0.0 ,1796.8 ,986.0 ,58.8 ,32.6 ,Baixa
1067.9 ,0.0 ,0.0 ,297.1 ,0.0 ,2651.0 ,941.2 ,39.2 ,20.2 ,Baixa
391.7 ,311.0 ,0.0 ,260.0 ,0.0 ,2258.5 ,1014.0 ,47.6 ,23.2 ,Baixa
409.6 ,297.8 ,0.0 ,204.3 ,0.0 ,1625.1 ,1987.2 ,47.6 ,15.8 ,Baixa
660.8 ,0.0 ,0.0 ,310.4 ,0.0 ,2129.6 ,2035.5 ,162.0 ,21.9 ,Baixa
736.8 ,0.0 ,0.0 ,366.7 ,0.0 ,2710.4 ,2111.2 ,234.0 ,31.0 ,Baixa
742.5 ,0.0 ,0.0 ,366.0 ,0.0 ,2284.8 ,1777.6 ,67.2 ,26.9 ,Baixa
376.8 ,354.0 ,0.0 ,326.4 ,0.0 ,1403.1 ,1328.0 ,252.0 ,43.4 ,Baixa
197.2 ,276.8 ,0.0 ,480.0 ,0.0 ,2274.5 ,1337.9 ,216.0 ,34.1 ,Baixa
402.8 ,240.2 ,0.0 ,529.1 ,0.0 ,1654.8 ,1500.0 ,10.5 ,15.0 ,Baixa
427.4 ,529.1 ,0.0 ,366.3 ,0.0 ,2220.4 ,1072.7 ,4.2 ,14.1 ,Baixa
468.1 ,488.5 ,0.0 ,244.2 ,0.0 ,1926.8 ,1323.0 ,8.1 ,9.6 ,Baixa
307.2 ,547.2 ,0.0 ,384.0 ,0.0 ,1952.6 ,1074.2 ,11.9 ,23.6 ,Baixa
837.0 ,0.0 ,0.0 ,422.4 ,0.0 ,1821.6 ,1577.0 ,216.0 ,42.6 ,Baixa
651.2 ,0.0 ,0.0 ,483.6 ,0.0 ,2398.0 ,1922.5 ,12.6 ,18.9 ,Baixa
594.0 ,0.0 ,0.0 ,346.0 ,0.0 ,1800.0 ,735.6 ,16.1 ,47.4 ,Baixa
693.0 ,0.0 ,0.0 ,334.8 ,0.0 ,1352.4 ,1297.1 ,8.4 ,16.2 ,Baixa
949.2 ,0.0 ,0.0 ,222.0 ,0.0 ,2779.4 ,1885.0 ,47.6 ,35.0 ,Baixa
732.9 ,0.0 ,0.0 ,211.2 ,0.0 ,2408.1 ,1612.0 ,162.0 ,39.5 ,Baixa
943.2 ,0.0 ,0.0 ,364.8 ,0.0 ,2350.0 ,1364.4 ,5.7 ,19.1 ,Baixa
577.5 ,0.0 ,0.0 ,472.5 ,0.0 ,2137.5 ,858.2 ,10.5 ,42.4 ,Baixa
600.6 ,126.0 ,123.0 ,336.0 ,24.3 ,2350.4 ,1428.0 ,64.4 ,40.9 ,Baixa
302.0 ,0.0 ,276.0 ,467.6 ,30.0 ,1982.0 ,1698.4 ,64.4 ,15.6 ,Baixa
521.6 ,182.6 ,0.0 ,261.0 ,16.2 ,1940.4 ,1659.0 ,78.4 ,61.2 ,Alto
690.0 ,313.2 ,207.0 ,378.0 ,18.0 ,2262.0 ,2150.4 ,53.2 ,39.9 ,Baixa
351.9 ,377.0 ,135.6 ,498.4 ,14.4 ,1302.6 ,1240.2 ,30.8 ,23.0 ,Baixa
328.9 ,473.2 ,185.9 ,210.1 ,13.6 ,2127.4 ,707.3 ,58.8 ,26.8 ,Baixa
628.0 ,174.0 ,282.5 ,465.4 ,15.2 ,1129.7 ,1794.0 ,56.0 ,46.2 ,Baixa
353.6 ,194.4 ,151.2 ,326.8 ,20.0 ,2215.2 ,1757.2 ,67.2 ,32.0 ,Baixa
350.7 ,299.2 ,292.5 ,462.5 ,14.0 ,1167.4 ,826.8 ,42.0 ,21.5 ,Baixa
403.7 ,566.4 ,0.0 ,298.9 ,15.1 ,1863.0 ,2231.8 ,47.6 ,36.3 ,Baixa
375.5 ,305.0 ,0.0 ,497.3 ,25.9 ,1924.9 ,1215.2 ,47.6 ,57.7 ,Baixa
262.3 ,397.0 ,0.0 ,200.1 ,4.8 ,1774.4 ,2042.0 ,30.8 ,26.1 ,Baixa
434.0 ,168.0 ,169.4 ,245.2 ,9.1 ,1562.3 ,1873.3 ,64.4 ,37.2 ,Baixa
548.6 ,0.0 ,129.5 ,215.6 ,18.6 ,1055.3 ,1904.0 ,78.4 ,33.1 ,Baixa